File: tables/Thermal_Conductivity_of_Water_at_Different_Temperatures.csv
Temperature (°C),Thermal conductivity (W/m·K),980,
25,0.6065,
30,0.6144,
35,0.6217,
40,0.6285,
45,0.6348,
50,0.6406,
55,0.6460,
60,0.6510,
65,0.6556,
70,0.6598,
75,0.6636,
80,0.6670,
85,0.6701,
90,0.6728,
95,0.6752,
99,0.6768,